       Field	   Intensity
        [mT]	         [ ]
       0.000	 -6.1339e+02
       0.250	  2.2431e+02
       0.500	  1.6151e+03
       0.750	  2.8261e+03
       1.000	  3.2057e+03
       1.250	  3.3749e+03
       1.500	  3.6123e+03
       1.750	  3.3703e+03
       2.000	  3.1485e+03
       2.250	  3.4968e+03
       2.500	  3.4823e+03
       2.750	  2.6819e+03
       3.000	  1.8896e+03
       3.250	  1.4188e+03
       3.500	  1.1433e+03
       3.750	  1.4053e+03
       4.000	  1.9103e+03
       4.250	  1.7246e+03
       4.500	  1.2231e+03
       4.750	  1.0139e+03
       5.000	  1.2250e+03
       5.250	  2.4797e+03
       5.500	  4.0638e+03
       5.750	  4.3133e+03
       6.000	  3.3943e+03
       6.250	  2.4330e+03
       6.500	  1.7382e+03
       6.750	  1.1746e+03
       7.000	  3.8439e+02
       7.250	 -2.4661e+02
       7.500	  7.8296e+02
       7.750	  2.2237e+03
       8.000	  1.9910e+03
       8.250	  1.9685e+03
       8.500	  2.8831e+03
       8.750	  2.9556e+03
       9.000	  2.5009e+03
       9.250	  2.1775e+03
       9.500	  1.9683e+03
       9.750	  2.1716e+03
      10.000	  2.3688e+03
      10.250	  2.2466e+03
      10.500	  2.1066e+03
      10.750	  2.1888e+03
      11.000	  3.1068e+03
      11.250	  4.9151e+03
      11.500	  5.9507e+03
      11.750	  5.1388e+03
      12.000	  3.9778e+03
      12.250	  4.0136e+03
      12.500	  4.2578e+03
      12.750	  3.2856e+03
      13.000	  2.1293e+03
      13.250	  2.3616e+03
      13.500	  3.4075e+03
      13.750	  3.5570e+03
      14.000	  2.1846e+03
      14.250	  1.0571e+03
      14.500	  2.0161e+03
      14.750	  3.8753e+03
      15.000	  4.7385e+03
      15.250	  4.6574e+03
      15.500	  4.4418e+03
      15.750	  4.6401e+03
      16.000	  5.0139e+03
      16.250	  4.5173e+03
      16.500	  2.6663e+03
      16.750	  4.7783e+02
      17.000	  7.9080e+01
      17.250	  2.0178e+03
      17.500	  3.7107e+03
      17.750	  3.4491e+03
      18.000	  2.7898e+03
      18.250	  2.9089e+03
      18.500	  2.9841e+03
      18.750	  2.7571e+03
      19.000	  3.0660e+03
      19.250	  3.8115e+03
      19.500	  4.3514e+03
      19.750	  4.7082e+03
      20.000	  4.5185e+03
      20.250	  3.7889e+03
      20.500	  3.6245e+03
      20.750	  4.1270e+03
      21.000	  4.1992e+03
      21.250	  3.5875e+03
      21.500	  3.3042e+03
      21.750	  3.8126e+03
      22.000	  4.4265e+03
      22.250	  4.6644e+03
      22.500	  4.6741e+03
      22.750	  4.6406e+03
      23.000	  4.7261e+03
      23.250	  4.8796e+03
      23.500	  4.1031e+03
      23.750	  2.3183e+03
      24.000	  1.3028e+03
      24.250	  1.7068e+03
      24.500	  2.7281e+03
      24.750	  3.5990e+03
      25.000	  3.9413e+03
      25.250	  4.0812e+03
      25.500	  4.2665e+03
      25.750	  4.4843e+03
      26.000	  5.0486e+03
      26.250	  5.8698e+03
      26.500	  6.0755e+03
      26.750	  4.8860e+03
      27.000	  2.7170e+03
      27.250	  1.2678e+03
      27.500	  1.3603e+03
      27.750	  2.1701e+03
      28.000	  3.1733e+03
      28.250	  4.3976e+03
      28.500	  5.3141e+03
      28.750	  4.9462e+03
      29.000	  3.5806e+03
      29.250	  2.9026e+03
      29.500	  3.5631e+03
      29.750	  4.6838e+03
      30.000	  4.9931e+03
      30.250	  4.2313e+03
      30.500	  3.9296e+03
      30.750	  4.7920e+03
      31.000	  5.1461e+03
      31.250	  4.2845e+03
      31.500	  3.8831e+03
      31.750	  4.1575e+03
      32.000	  3.5618e+03
      32.250	  3.1026e+03
      32.500	  4.3838e+03
      32.750	  5.4533e+03
      33.000	  4.2865e+03
      33.250	  2.2365e+03
      33.500	  1.3192e+03
      33.750	  1.8553e+03
      34.000	  3.1395e+03
      34.250	  3.7291e+03
      34.500	  2.8712e+03
      34.750	  2.4126e+03
      35.000	  3.5875e+03
      35.250	  4.5914e+03
      35.500	  4.3853e+03
      35.750	  4.0998e+03
      36.000	  4.3112e+03
      36.250	  4.2438e+03
      36.500	  3.3503e+03
      36.750	  2.6496e+03
      37.000	  2.7795e+03
      37.250	  2.5030e+03
      37.500	  1.7437e+03
      37.750	  2.1818e+03
      38.000	  3.6588e+03
      38.250	  4.4859e+03
      38.500	  4.4620e+03
      38.750	  4.1315e+03
      39.000	  3.5918e+03
      39.250	  3.4949e+03
      39.500	  4.1895e+03
      39.750	  4.5496e+03
      40.000	  4.1662e+03
      40.250	  3.9693e+03
      40.500	  4.1455e+03
      40.750	  4.4855e+03
      41.000	  4.7322e+03
      41.250	  4.3555e+03
      41.500	  3.2269e+03
      41.750	  2.1457e+03
      42.000	  2.7102e+03
      42.250	  4.1887e+03
      42.500	  4.3946e+03
      42.750	  3.8170e+03
      43.000	  3.6750e+03
      43.250	  4.4638e+03
      43.500	  5.5428e+03
      43.750	  5.1953e+03
      44.000	  4.1506e+03
      44.250	  4.0962e+03
      44.500	  4.6029e+03
      44.750	  5.2819e+03
      45.000	  6.1980e+03
      45.250	  6.1676e+03
      45.500	  4.5833e+03
      45.750	  2.9481e+03
      46.000	  2.1156e+03
      46.250	  1.6397e+03
      46.500	  2.0703e+03
      46.750	  3.5508e+03
      47.000	  4.5355e+03
      47.250	  4.2858e+03
      47.500	  3.8363e+03
      47.750	  3.9291e+03
      48.000	  3.8942e+03
      48.250	  3.7415e+03
      48.500	  4.5756e+03
      48.750	  5.7400e+03
      49.000	  5.7352e+03
      49.250	  5.1692e+03
      49.500	  5.1766e+03
      49.750	  5.1789e+03
      50.000	  4.4211e+03
      50.250	  3.7303e+03
      50.500	  4.1415e+03
      50.750	  5.0100e+03
      51.000	  5.2403e+03
      51.250	  4.7413e+03
      51.500	  3.6837e+03
      51.750	  2.4503e+03
      52.000	  1.7210e+03
      52.250	  1.7200e+03
      52.500	  1.9896e+03
      52.750	  2.0784e+03
      53.000	  2.5582e+03
      53.250	  4.0960e+03
      53.500	  5.6597e+03
      53.750	  5.9020e+03
      54.000	  5.1555e+03
      54.250	  4.2345e+03
      54.500	  3.4580e+03
      54.750	  3.0016e+03
      55.000	  2.6476e+03
      55.250	  2.3344e+03
      55.500	  2.5606e+03
      55.750	  3.1475e+03
      56.000	  3.2202e+03
      56.250	  2.9263e+03
      56.500	  3.0481e+03
      56.750	  3.0873e+03
      57.000	  2.2314e+03
      57.250	  1.1390e+03
      57.500	  1.1067e+03
      57.750	  2.4365e+03
      58.000	  3.8481e+03
      58.250	  3.9838e+03
      58.500	  3.3795e+03
      58.750	  3.2626e+03
      59.000	  3.2899e+03
      59.250	  2.7012e+03
      59.500	  1.9452e+03
      59.750	  2.0565e+03
      60.000	  3.1533e+03
      60.250	  3.6564e+03
      60.500	  3.0539e+03
      60.750	  2.8885e+03
      61.000	  3.4425e+03
      61.250	  3.7175e+03
      61.500	  3.4929e+03
      61.750	  3.3607e+03
      62.000	  3.7064e+03
      62.250	  4.1841e+03
      62.500	  4.2439e+03
      62.750	  3.4091e+03
      63.000	  2.2551e+03
      63.250	  2.1620e+03
      63.500	  2.6217e+03
      63.750	  2.5061e+03
      64.000	  2.7360e+03
      64.250	  3.7318e+03
      64.500	  4.3286e+03
      64.750	  4.4266e+03
      65.000	  4.3446e+03
      65.250	  3.7343e+03
      65.500	  2.9970e+03
      65.750	  2.6995e+03
      66.000	  2.3650e+03
      66.250	  1.2921e+03
      66.500	  1.0393e+01
      66.750	 -2.2923e+02
      67.000	  3.9183e+02
      67.250	  9.1133e+02
      67.500	  1.0264e+03
      67.750	  5.0664e+02
      68.000	 -3.4154e+02
      68.250	 -6.8267e+02
      68.500	 -6.5273e+02
      68.750	  4.5330e+01
      69.000	  2.2596e+03
      69.250	  3.7742e+03
      69.500	  2.1085e+03
      69.750	 -5.9267e+02
      70.000	 -1.2108e+03
      70.250	 -3.1442e+02
      70.500	 -2.0573e+02
      70.750	 -7.5967e+02
      71.000	 -6.2104e+02
      71.250	 -2.4354e+02
      71.500	  2.6271e+02
      71.750	  1.8625e+03
      72.000	  3.4145e+03
      72.250	  3.2628e+03
      72.500	  2.3968e+03
      72.750	  1.9551e+03
      73.000	  2.0787e+03
      73.250	  3.3288e+03
      73.500	  5.0518e+03
      73.750	  5.4716e+03
      74.000	  4.0966e+03
      74.250	  1.9933e+03
      74.500	  9.9496e+02
      74.750	  1.5353e+03
      75.000	  2.2463e+03
      75.250	  3.0350e+03
      75.500	  4.3681e+03
      75.750	  5.3140e+03
      76.000	  5.0263e+03
      76.250	  3.6749e+03
      76.500	  2.6494e+03
      76.750	  3.0816e+03
      77.000	  4.1733e+03
      77.250	  5.1359e+03
      77.500	  5.8268e+03
      77.750	  5.2362e+03
      78.000	  3.2258e+03
      78.250	  2.1320e+03
      78.500	  3.4511e+03
      78.750	  5.2793e+03
      79.000	  5.3180e+03
      79.250	  3.8792e+03
      79.500	  2.7223e+03
      79.750	  2.6609e+03
      80.000	  2.8666e+03
      80.250	  2.7191e+03
      80.500	  2.9487e+03
      80.750	  4.0088e+03
      81.000	  5.1090e+03
      81.250	  4.9923e+03
      81.500	  3.4515e+03
      81.750	  1.7994e+03
      82.000	  1.3483e+03
      82.250	  2.2311e+03
      82.500	  3.7465e+03
      82.750	  5.0081e+03
      83.000	  5.1993e+03
      83.250	  4.5594e+03
      83.500	  4.2767e+03
      83.750	  4.7399e+03
      84.000	  5.4878e+03
      84.250	  5.9206e+03
      84.500	  5.8323e+03
      84.750	  5.9411e+03
      85.000	  6.7181e+03
      85.250	  7.4520e+03
      85.500	  7.3955e+03
      85.750	  6.5847e+03
      86.000	  5.5754e+03
      86.250	  4.7314e+03
      86.500	  4.2750e+03
      86.750	  4.8018e+03
      87.000	  5.4991e+03
      87.250	  4.6080e+03
      87.500	  3.2615e+03
      87.750	  3.7045e+03
      88.000	  5.2948e+03
      88.250	  6.4255e+03
      88.500	  7.2600e+03
      88.750	  8.3008e+03
      89.000	  8.7200e+03
      89.250	  8.3538e+03
      89.500	  8.0492e+03
      89.750	  7.2319e+03
      90.000	  5.7834e+03
      90.250	  5.2057e+03
      90.500	  5.4210e+03
      90.750	  5.1574e+03
      91.000	  4.2773e+03
      91.250	  3.4920e+03
      91.500	  3.6248e+03
      91.750	  4.5309e+03
      92.000	  5.6855e+03
      92.250	  7.1945e+03
      92.500	  7.8576e+03
      92.750	  6.7128e+03
      93.000	  5.8361e+03
      93.250	  6.3431e+03
      93.500	  6.6089e+03
      93.750	  6.2149e+03
      94.000	  5.4730e+03
      94.250	  4.0766e+03
      94.500	  3.2866e+03
      94.750	  4.3041e+03
      95.000	  5.6867e+03
      95.250	  6.3162e+03
      95.500	  7.0486e+03
      95.750	  7.7146e+03
      96.000	  7.5638e+03
      96.250	  7.2497e+03
      96.500	  6.9273e+03
      96.750	  6.4158e+03
      97.000	  6.5213e+03
      97.250	  7.0881e+03
      97.500	  7.2879e+03
      97.750	  7.3148e+03
      98.000	  7.0490e+03
      98.250	  6.3643e+03
      98.500	  6.1543e+03
      98.750	  6.3943e+03
      99.000	  6.4953e+03
      99.250	  7.0352e+03
      99.500	  7.8927e+03
      99.750	  7.9220e+03
     100.000	  7.5853e+03
     100.250	  7.9917e+03
     100.500	  8.5450e+03
     100.750	  8.3482e+03
     101.000	  7.6805e+03
     101.250	  6.9757e+03
     101.500	  6.1750e+03
     101.750	  5.1172e+03
     102.000	  3.8210e+03
     102.250	  2.7658e+03
     102.500	  2.8085e+03
     102.750	  4.3025e+03
     103.000	  6.5495e+03
     103.250	  8.4431e+03
     103.500	  9.2443e+03
     103.750	  8.6672e+03
     104.000	  7.3673e+03
     104.250	  6.8216e+03
     104.500	  6.8792e+03
     104.750	  6.0967e+03
     105.000	  5.1861e+03
     105.250	  5.3088e+03
     105.500	  5.5844e+03
     105.750	  5.7282e+03
     106.000	  5.8960e+03
     106.250	  5.0608e+03
     106.500	  3.8725e+03
     106.750	  4.3706e+03
     107.000	  6.2543e+03
     107.250	  7.4433e+03
     107.500	  7.1913e+03
     107.750	  6.9680e+03
     108.000	  7.2135e+03
     108.250	  6.6256e+03
     108.500	  6.1389e+03
     108.750	  7.0521e+03
     109.000	  7.3418e+03
     109.250	  5.8301e+03
     109.500	  4.4384e+03
     109.750	  3.9970e+03
     110.000	  4.1543e+03
     110.250	  5.0596e+03
     110.500	  6.1494e+03
     110.750	  6.9348e+03
     111.000	  7.5396e+03
     111.250	  8.0907e+03
     111.500	  8.6554e+03
     111.750	  8.4590e+03
     112.000	  7.1936e+03
     112.250	  6.0633e+03
     112.500	  5.8295e+03
     112.750	  5.8978e+03
     113.000	  4.9568e+03
     113.250	  3.5256e+03
     113.500	  3.8391e+03
     113.750	  5.1152e+03
     114.000	  5.0330e+03
     114.250	  4.2116e+03
     114.500	  4.3546e+03
     114.750	  5.7394e+03
     115.000	  7.1551e+03
     115.250	  7.3035e+03
     115.500	  6.7254e+03
     115.750	  6.4413e+03
     116.000	  6.4174e+03
     116.250	  6.2920e+03
     116.500	  5.7611e+03
     116.750	  5.0023e+03
     117.000	  4.1860e+03
     117.250	  3.4049e+03
     117.500	  3.4970e+03
     117.750	  4.4872e+03
     118.000	  5.0390e+03
     118.250	  4.9560e+03
     118.500	  4.8623e+03
     118.750	  4.4376e+03
     119.000	  4.0191e+03
     119.250	  4.1258e+03
     119.500	  3.8663e+03
     119.750	  3.0796e+03
     120.000	  2.8368e+03
     120.250	  3.4881e+03
     120.500	  4.0456e+03
     120.750	  3.5405e+03
     121.000	  2.6773e+03
     121.250	  2.7564e+03
     121.500	  3.8377e+03
     121.750	  5.2854e+03
     122.000	  6.6845e+03
     122.250	  7.5996e+03
     122.500	  7.5531e+03
     122.750	  6.8466e+03
     123.000	  6.0668e+03
     123.250	  5.1931e+03
     123.500	  4.8263e+03
     123.750	  5.3251e+03
     124.000	  5.5336e+03
     124.250	  5.3341e+03
     124.500	  5.7554e+03
     124.750	  6.7951e+03
     125.000	  7.8008e+03
     125.250	  8.1070e+03
     125.500	  7.2818e+03
     125.750	  6.4490e+03
     126.000	  6.9815e+03
     126.250	  7.5071e+03
     126.500	  7.0190e+03
     126.750	  7.1098e+03
     127.000	  7.9556e+03
     127.250	  8.3006e+03
     127.500	  7.8781e+03
     127.750	  6.9205e+03
     128.000	  5.7647e+03
     128.250	  4.5538e+03
     128.500	  3.6565e+03
     128.750	  3.8832e+03
     129.000	  4.6741e+03
     129.250	  5.2439e+03
     129.500	  6.5614e+03
     129.750	  8.6152e+03
     130.000	  9.6348e+03
     130.250	  8.8186e+03
     130.500	  7.1617e+03
     130.750	  6.6164e+03
     131.000	  7.2201e+03
     131.250	  7.0171e+03
     131.500	  6.5040e+03
     131.750	  7.2355e+03
     132.000	  8.0094e+03
     132.250	  7.1453e+03
     132.500	  4.9847e+03
     132.750	  3.3740e+03
     133.000	  3.1936e+03
     133.250	  3.6158e+03
     133.500	  4.8453e+03
     133.750	  6.7569e+03
     134.000	  7.7996e+03
     134.250	  8.3834e+03
     134.500	  9.1087e+03
     134.750	  8.8324e+03
     135.000	  7.5469e+03
     135.250	  6.2558e+03
     135.500	  5.7151e+03
     135.750	  6.5843e+03
     136.000	  8.3154e+03
     136.250	  9.3396e+03
     136.500	  9.1802e+03
     136.750	  8.6561e+03
     137.000	  8.5881e+03
     137.250	  9.2738e+03
     137.500	  1.0318e+04
     137.750	  1.0841e+04
     138.000	  1.0203e+04
     138.250	  8.8423e+03
     138.500	  8.0023e+03
     138.750	  8.0598e+03
     139.000	  8.7290e+03
     139.250	  9.7266e+03
     139.500	  9.8795e+03
     139.750	  8.7814e+03
     140.000	  7.5263e+03
     140.250	  6.3015e+03
     140.500	  5.5043e+03
     140.750	  6.3343e+03
     141.000	  7.9616e+03
     141.250	  8.6451e+03
     141.500	  8.2344e+03
     141.750	  7.6093e+03
     142.000	  7.8579e+03
     142.250	  8.7928e+03
     142.500	  8.9214e+03
     142.750	  8.2691e+03
     143.000	  8.2030e+03
     143.250	  8.8177e+03
     143.500	  9.1205e+03
     143.750	  9.1513e+03
     144.000	  9.5800e+03
     144.250	  9.9456e+03
     144.500	  9.9262e+03
     144.750	  9.7608e+03
     145.000	  9.1233e+03
     145.250	  8.8160e+03
     145.500	  9.9861e+03
     145.750	  1.1509e+04
     146.000	  1.1635e+04
     146.250	  1.0312e+04
     146.500	  9.5616e+03
     146.750	  1.0328e+04
     147.000	  1.0436e+04
     147.250	  9.3401e+03
     147.500	  9.1295e+03
     147.750	  9.9162e+03
     148.000	  1.0166e+04
     148.250	  9.2257e+03
     148.500	  7.2881e+03
     148.750	  5.7780e+03
     149.000	  6.7046e+03
     149.250	  9.7583e+03
     149.500	  1.2565e+04
     149.750	  1.3517e+04
     150.000	  1.2544e+04
     150.250	  1.1179e+04
     150.500	  1.1213e+04
     150.750	  1.2522e+04
     151.000	  1.3966e+04
     151.250	  1.4460e+04
     151.500	  1.3804e+04
     151.750	  1.3020e+04
     152.000	  1.2268e+04
     152.250	  1.1553e+04
     152.500	  1.1330e+04
     152.750	  1.1035e+04
     153.000	  1.1007e+04
     153.250	  1.2230e+04
     153.500	  1.3598e+04
     153.750	  1.3865e+04
     154.000	  1.3555e+04
     154.250	  1.3113e+04
     154.500	  1.2369e+04
     154.750	  1.1495e+04
     155.000	  1.0809e+04
     155.250	  1.0683e+04
     155.500	  1.1409e+04
     155.750	  1.2187e+04
     156.000	  1.1964e+04
     156.250	  1.1143e+04
     156.500	  1.0663e+04
     156.750	  1.1150e+04
     157.000	  1.2292e+04
     157.250	  1.2443e+04
     157.500	  1.1357e+04
     157.750	  1.0726e+04
     158.000	  1.1232e+04
     158.250	  1.1943e+04
     158.500	  1.1860e+04
     158.750	  1.1269e+04
     159.000	  1.1088e+04
     159.250	  1.1102e+04
     159.500	  1.1074e+04
     159.750	  1.1624e+04
     160.000	  1.2394e+04
     160.250	  1.2566e+04
     160.500	  1.2031e+04
     160.750	  1.1282e+04
     161.000	  1.1376e+04
     161.250	  1.1906e+04
     161.500	  1.1848e+04
     161.750	  1.2393e+04
     162.000	  1.3951e+04
     162.250	  1.4690e+04
     162.500	  1.4257e+04
     162.750	  1.3425e+04
     163.000	  1.2220e+04
     163.250	  1.1030e+04
     163.500	  1.0722e+04
     163.750	  1.1271e+04
     164.000	  1.1552e+04
     164.250	  1.1435e+04
     164.500	  1.1647e+04
     164.750	  1.1856e+04
     165.000	  1.1656e+04
     165.250	  1.1591e+04
     165.500	  1.2305e+04
     165.750	  1.2670e+04
     166.000	  1.1528e+04
     166.250	  1.0831e+04
     166.500	  1.1718e+04
     166.750	  1.2189e+04
     167.000	  1.1786e+04
     167.250	  1.2106e+04
     167.500	  1.3129e+04
     167.750	  1.3485e+04
     168.000	  1.2462e+04
     168.250	  1.0611e+04
     168.500	  9.2175e+03
     168.750	  9.0323e+03
     169.000	  9.8034e+03
     169.250	  1.0197e+04
     169.500	  9.5120e+03
     169.750	  8.6310e+03
     170.000	  8.0796e+03
     170.250	  8.2468e+03
     170.500	  9.4693e+03
     170.750	  1.0573e+04
     171.000	  1.0316e+04
     171.250	  9.1916e+03
     171.500	  8.3599e+03
     171.750	  8.0795e+03
     172.000	  7.6875e+03
     172.250	  7.0295e+03
     172.500	  7.0418e+03
     172.750	  7.9474e+03
     173.000	  8.6874e+03
     173.250	  8.8596e+03
     173.500	  9.0646e+03
     173.750	  9.2090e+03
     174.000	  8.7206e+03
     174.250	  8.4233e+03
     174.500	  8.8407e+03
     174.750	  8.0780e+03
     175.000	  5.4716e+03
     175.250	  3.6753e+03
     175.500	  4.5928e+03
     175.750	  6.9884e+03
     176.000	  8.4410e+03
     176.250	  7.8025e+03
     176.500	  6.1512e+03
     176.750	  5.3368e+03
     177.000	  5.5664e+03
     177.250	  5.7740e+03
     177.500	  5.7142e+03
     177.750	  5.6355e+03
     178.000	  5.2900e+03
     178.250	  4.8011e+03
     178.500	  4.7596e+03
     178.750	  5.4011e+03
     179.000	  6.3065e+03
     179.250	  6.4842e+03
     179.500	  5.9051e+03
     179.750	  5.1940e+03
     180.000	  3.7621e+03
     180.250	  2.3535e+03
     180.500	  2.8896e+03
     180.750	  4.0553e+03
     181.000	  3.9906e+03
     181.250	  3.4681e+03
     181.500	  3.1080e+03
     181.750	  2.9848e+03
     182.000	  3.1717e+03
     182.250	  3.1251e+03
     182.500	  3.2055e+03
     182.750	  3.9164e+03
     183.000	  3.9085e+03
     183.250	  2.7520e+03
     183.500	  2.1433e+03
     183.750	  2.6575e+03
     184.000	  3.7865e+03
     184.250	  5.0083e+03
     184.500	  5.4444e+03
     184.750	  5.6218e+03
     185.000	  6.2644e+03
     185.250	  6.4306e+03
     185.500	  6.4573e+03
     185.750	  7.2949e+03
     186.000	  7.7409e+03
     186.250	  6.9465e+03
     186.500	  5.9669e+03
     186.750	  5.6736e+03
     187.000	  5.8893e+03
     187.250	  6.4755e+03
     187.500	  7.5250e+03
     187.750	  8.5489e+03
     188.000	  8.8851e+03
     188.250	  8.7147e+03
     188.500	  8.7751e+03
     188.750	  8.8406e+03
     189.000	  7.9861e+03
     189.250	  6.3297e+03
     189.500	  4.9772e+03
     189.750	  4.7321e+03
     190.000	  5.3575e+03
     190.250	  6.1096e+03
     190.500	  6.3596e+03
     190.750	  6.1765e+03
     191.000	  6.8886e+03
     191.250	  8.9903e+03
     191.500	  1.0444e+04
     191.750	  9.5276e+03
     192.000	  7.2846e+03
     192.250	  5.9978e+03
     192.500	  6.4802e+03
     192.750	  7.5120e+03
     193.000	  8.2467e+03
     193.250	  8.9312e+03
     193.500	  9.3206e+03
     193.750	  8.9693e+03
     194.000	  7.7236e+03
     194.250	  5.8688e+03
     194.500	  4.6586e+03
     194.750	  4.9278e+03
     195.000	  6.1468e+03
     195.250	  7.5503e+03
     195.500	  8.2920e+03
     195.750	  8.3371e+03
     196.000	  9.1617e+03
     196.250	  1.0618e+04
     196.500	  1.0837e+04
     196.750	  1.0091e+04
     197.000	  9.8600e+03
     197.250	  1.0171e+04
     197.500	  1.0686e+04
     197.750	  1.1667e+04
     198.000	  1.2804e+04
     198.250	  1.3017e+04
     198.500	  1.2063e+04
     198.750	  1.0807e+04
     199.000	  9.9806e+03
     199.250	  9.7148e+03
     199.500	  9.7834e+03
     199.750	  9.7529e+03
     200.000	  9.2278e+03
     200.250	  8.4708e+03
     200.500	  8.3733e+03
     200.750	  9.1020e+03
     201.000	  9.5413e+03
     201.250	  9.5210e+03
     201.500	  1.0260e+04
     201.750	  1.1184e+04
     202.000	  1.0861e+04
     202.250	  1.0266e+04
     202.500	  1.0656e+04
     202.750	  1.1521e+04
     203.000	  1.2456e+04
     203.250	  1.3374e+04
     203.500	  1.3435e+04
     203.750	  1.2430e+04
     204.000	  1.1325e+04
     204.250	  1.0296e+04
     204.500	  9.1056e+03
     204.750	  8.3839e+03
     205.000	  8.6583e+03
     205.250	  9.7809e+03
     205.500	  1.1038e+04
     205.750	  1.1965e+04
     206.000	  1.2695e+04
     206.250	  1.2928e+04
     206.500	  1.2797e+04
     206.750	  1.3113e+04
     207.000	  1.3570e+04
     207.250	  1.3578e+04
     207.500	  1.3698e+04
     207.750	  1.4203e+04
     208.000	  1.4437e+04
     208.250	  1.4198e+04
     208.500	  1.3795e+04
     208.750	  1.3523e+04
     209.000	  1.3571e+04
     209.250	  1.3661e+04
     209.500	  1.3525e+04
     209.750	  1.3120e+04
     210.000	  1.2315e+04
     210.250	  1.1878e+04
     210.500	  1.2666e+04
     210.750	  1.3649e+04
     211.000	  1.4050e+04
     211.250	  1.4369e+04
     211.500	  1.4516e+04
     211.750	  1.4324e+04
     212.000	  1.3811e+04
     212.250	  1.3617e+04
     212.500	  1.4904e+04
     212.750	  1.6798e+04
     213.000	  1.7690e+04
     213.250	  1.7479e+04
     213.500	  1.6964e+04
     213.750	  1.7221e+04
     214.000	  1.7975e+04
     214.250	  1.8136e+04
     214.500	  1.8131e+04
     214.750	  1.8645e+04
     215.000	  1.9068e+04
     215.250	  1.8892e+04
     215.500	  1.8425e+04
     215.750	  1.8008e+04
     216.000	  1.7950e+04
     216.250	  1.8000e+04
     216.500	  1.7395e+04
     216.750	  1.6579e+04
     217.000	  1.6472e+04
     217.250	  1.6829e+04
     217.500	  1.7321e+04
     217.750	  1.7494e+04
     218.000	  1.6503e+04
     218.250	  1.5139e+04
     218.500	  1.5101e+04
     218.750	  1.6464e+04
     219.000	  1.8398e+04
     219.250	  2.0297e+04
     219.500	  2.1068e+04
     219.750	  1.9855e+04
     220.000	  1.8116e+04
     220.250	  1.8395e+04
     220.500	  1.9931e+04
     220.750	  1.9830e+04
     221.000	  1.8750e+04
     221.250	  1.9504e+04
     221.500	  2.1725e+04
     221.750	  2.2909e+04
     222.000	  2.2590e+04
     222.250	  2.2018e+04
     222.500	  2.1747e+04
     222.750	  2.1188e+04
     223.000	  1.9725e+04
     223.250	  1.8569e+04
     223.500	  1.9221e+04
     223.750	  2.0642e+04
     224.000	  2.1294e+04
     224.250	  2.1406e+04
     224.500	  2.1847e+04
     224.750	  2.2554e+04
     225.000	  2.2532e+04
     225.250	  2.1563e+04
     225.500	  2.1068e+04
     225.750	  2.2327e+04
     226.000	  2.3879e+04
     226.250	  2.3507e+04
     226.500	  2.2709e+04
     226.750	  2.3860e+04
     227.000	  2.5732e+04
     227.250	  2.6156e+04
     227.500	  2.5008e+04
     227.750	  2.3664e+04
     228.000	  2.3039e+04
     228.250	  2.3006e+04
     228.500	  2.3794e+04
     228.750	  2.4789e+04
     229.000	  2.4409e+04
     229.250	  2.3112e+04
     229.500	  2.2836e+04
     229.750	  2.4103e+04
     230.000	  2.5883e+04
     230.250	  2.7146e+04
     230.500	  2.7385e+04
     230.750	  2.7104e+04
     231.000	  2.7500e+04
     231.250	  2.8427e+04
     231.500	  2.8841e+04
     231.750	  2.8819e+04
     232.000	  2.9231e+04
     232.250	  2.9686e+04
     232.500	  2.8648e+04
     232.750	  2.7037e+04
     233.000	  2.7197e+04
     233.250	  2.8504e+04
     233.500	  2.9491e+04
     233.750	  3.0283e+04
     234.000	  3.0697e+04
     234.250	  3.0633e+04
     234.500	  3.0746e+04
     234.750	  3.1022e+04
     235.000	  3.1271e+04
     235.250	  3.1874e+04
     235.500	  3.3232e+04
     235.750	  3.4745e+04
     236.000	  3.5043e+04
     236.250	  3.4400e+04
     236.500	  3.3981e+04
     236.750	  3.4038e+04
     237.000	  3.4818e+04
     237.250	  3.5933e+04
     237.500	  3.6775e+04
     237.750	  3.7734e+04
     238.000	  3.8702e+04
     238.250	  3.9296e+04
     238.500	  3.9473e+04
     238.750	  3.9115e+04
     239.000	  3.8954e+04
     239.250	  3.9824e+04
     239.500	  4.1151e+04
     239.750	  4.1804e+04
     240.000	  4.1642e+04
     240.250	  4.1786e+04
     240.500	  4.2783e+04
     240.750	  4.3378e+04
     241.000	  4.2972e+04
     241.250	  4.2361e+04
     241.500	  4.1678e+04
     241.750	  4.1335e+04
     242.000	  4.1811e+04
     242.250	  4.2316e+04
     242.500	  4.2514e+04
     242.750	  4.2726e+04
     243.000	  4.3093e+04
     243.250	  4.3800e+04
     243.500	  4.4649e+04
     243.750	  4.5521e+04
     244.000	  4.6958e+04
     244.250	  4.8602e+04
     244.500	  4.8783e+04
     244.750	  4.7438e+04
     245.000	  4.6378e+04
     245.250	  4.6217e+04
     245.500	  4.6908e+04
     245.750	  4.8367e+04
     246.000	  4.9241e+04
     246.250	  4.9034e+04
     246.500	  4.8821e+04
     246.750	  4.8347e+04
     247.000	  4.6957e+04
     247.250	  4.5970e+04
     247.500	  4.6548e+04
     247.750	  4.8183e+04
     248.000	  4.9803e+04
     248.250	  5.0200e+04
     248.500	  4.9360e+04
     248.750	  4.8893e+04
     249.000	  4.9634e+04
     249.250	  5.0850e+04
     249.500	  5.1441e+04
     249.750	  5.0968e+04
     250.000	  5.0240e+04
     250.250	  5.0203e+04
     250.500	  5.0578e+04
     250.750	  5.0617e+04
     251.000	  5.0323e+04
     251.250	  5.0351e+04
     251.500	  5.0774e+04
     251.750	  5.0656e+04
     252.000	  4.9669e+04
     252.250	  4.8933e+04
     252.500	  4.9447e+04
     252.750	  5.0774e+04
     253.000	  5.1600e+04
     253.250	  5.1589e+04
     253.500	  5.1552e+04
     253.750	  5.1502e+04
     254.000	  5.1637e+04
     254.250	  5.2618e+04
     254.500	  5.3325e+04
     254.750	  5.2858e+04
     255.000	  5.2233e+04
     255.250	  5.2052e+04
     255.500	  5.1460e+04
     255.750	  4.9900e+04
     256.000	  4.8238e+04
     256.250	  4.7589e+04
     256.500	  4.8486e+04
     256.750	  5.0611e+04
     257.000	  5.2852e+04
     257.250	  5.4047e+04
     257.500	  5.4150e+04
     257.750	  5.4410e+04
     258.000	  5.4679e+04
     258.250	  5.3963e+04
     258.500	  5.3376e+04
     258.750	  5.3704e+04
     259.000	  5.4084e+04
     259.250	  5.4353e+04
     259.500	  5.5155e+04
     259.750	  5.6405e+04
     260.000	  5.6948e+04
     260.250	  5.6590e+04
     260.500	  5.6229e+04
     260.750	  5.5878e+04
     261.000	  5.5608e+04
     261.250	  5.5865e+04
     261.500	  5.6343e+04
     261.750	  5.7082e+04
     262.000	  5.7887e+04
     262.250	  5.7670e+04
     262.500	  5.7212e+04
     262.750	  5.7703e+04
     263.000	  5.8016e+04
     263.250	  5.7300e+04
     263.500	  5.6527e+04
     263.750	  5.7161e+04
     264.000	  5.8939e+04
     264.250	  6.0039e+04
     264.500	  5.9741e+04
     264.750	  5.8624e+04
     265.000	  5.8003e+04
     265.250	  5.8849e+04
     265.500	  6.0286e+04
     265.750	  6.0781e+04
     266.000	  6.0498e+04
     266.250	  6.0712e+04
     266.500	  6.1407e+04
     266.750	  6.2333e+04
     267.000	  6.3401e+04
     267.250	  6.3537e+04
     267.500	  6.3215e+04
     267.750	  6.3759e+04
     268.000	  6.4165e+04
     268.250	  6.3293e+04
     268.500	  6.2195e+04
     268.750	  6.2633e+04
     269.000	  6.4647e+04
     269.250	  6.6489e+04
     269.500	  6.6973e+04
     269.750	  6.6648e+04
     270.000	  6.6783e+04
     270.250	  6.7543e+04
     270.500	  6.8536e+04
     270.750	  6.9864e+04
     271.000	  7.0911e+04
     271.250	  7.0885e+04
     271.500	  7.0375e+04
     271.750	  7.0229e+04
     272.000	  7.0439e+04
     272.250	  7.1016e+04
     272.500	  7.1605e+04
     272.750	  7.1524e+04
     273.000	  7.1771e+04
     273.250	  7.3327e+04
     273.500	  7.4710e+04
     273.750	  7.4625e+04
     274.000	  7.4470e+04
     274.250	  7.5342e+04
     274.500	  7.5972e+04
     274.750	  7.6240e+04
     275.000	  7.7551e+04
     275.250	  7.9305e+04
     275.500	  7.9980e+04
     275.750	  7.9874e+04
     276.000	  7.9982e+04
     276.250	  8.0536e+04
     276.500	  8.1341e+04
     276.750	  8.1737e+04
     277.000	  8.1236e+04
     277.250	  8.0545e+04
     277.500	  8.0679e+04
     277.750	  8.1762e+04
     278.000	  8.3257e+04
     278.250	  8.4689e+04
     278.500	  8.5674e+04
     278.750	  8.6060e+04
     279.000	  8.6798e+04
     279.250	  8.8776e+04
     279.500	  9.1061e+04
     279.750	  9.2215e+04
     280.000	  9.2129e+04
     280.250	  9.1872e+04
     280.500	  9.2091e+04
     280.750	  9.2504e+04
     281.000	  9.2866e+04
     281.250	  9.2994e+04
     281.500	  9.3220e+04
     281.750	  9.4661e+04
     282.000	  9.7213e+04
     282.250	  9.9674e+04
     282.500	  1.0154e+05
     282.750	  1.0240e+05
     283.000	  1.0209e+05
     283.250	  1.0152e+05
     283.500	  1.0187e+05
     283.750	  1.0342e+05
     284.000	  1.0491e+05
     284.250	  1.0516e+05
     284.500	  1.0486e+05
     284.750	  1.0525e+05
     285.000	  1.0659e+05
     285.250	  1.0802e+05
     285.500	  1.0859e+05
     285.750	  1.0875e+05
     286.000	  1.1009e+05
     286.250	  1.1257e+05
     286.500	  1.1460e+05
     286.750	  1.1571e+05
     287.000	  1.1597e+05
     287.250	  1.1548e+05
     287.500	  1.1560e+05
     287.750	  1.1693e+05
     288.000	  1.1783e+05
     288.250	  1.1781e+05
     288.500	  1.1864e+05
     288.750	  1.2063e+05
     289.000	  1.2236e+05
     289.250	  1.2360e+05
     289.500	  1.2425e+05
     289.750	  1.2419e+05
     290.000	  1.2453e+05
     290.250	  1.2556e+05
     290.500	  1.2631e+05
     290.750	  1.2666e+05
     291.000	  1.2709e+05
     291.250	  1.2796e+05
     291.500	  1.2963e+05
     291.750	  1.3152e+05
     292.000	  1.3303e+05
     292.250	  1.3454e+05
     292.500	  1.3570e+05
     292.750	  1.3574e+05
     293.000	  1.3518e+05
     293.250	  1.3499e+05
     293.500	  1.3587e+05
     293.750	  1.3787e+05
     294.000	  1.3941e+05
     294.250	  1.3956e+05
     294.500	  1.3991e+05
     294.750	  1.4167e+05
     295.000	  1.4371e+05
     295.250	  1.4442e+05
     295.500	  1.4430e+05
     295.750	  1.4518e+05
     296.000	  1.4695e+05
     296.250	  1.4795e+05
     296.500	  1.4846e+05
     296.750	  1.4968e+05
     297.000	  1.5089e+05
     297.250	  1.5158e+05
     297.500	  1.5284e+05
     297.750	  1.5481e+05
     298.000	  1.5636e+05
     298.250	  1.5686e+05
     298.500	  1.5682e+05
     298.750	  1.5709e+05
     299.000	  1.5791e+05
     299.250	  1.5933e+05
     299.500	  1.6136e+05
     299.750	  1.6359e+05
     300.000	  1.6544e+05
     300.250	  1.6668e+05
     300.500	  1.6725e+05
     300.750	  1.6757e+05
     301.000	  1.6815e+05
     301.250	  1.6863e+05
     301.500	  1.6888e+05
     301.750	  1.6981e+05
     302.000	  1.7164e+05
     302.250	  1.7348e+05
     302.500	  1.7465e+05
     302.750	  1.7580e+05
     303.000	  1.7737e+05
     303.250	  1.7800e+05
     303.500	  1.7754e+05
     303.750	  1.7795e+05
     304.000	  1.7942e+05
     304.250	  1.8108e+05
     304.500	  1.8298e+05
     304.750	  1.8440e+05
     305.000	  1.8502e+05
     305.250	  1.8627e+05
     305.500	  1.8823e+05
     305.750	  1.8987e+05
     306.000	  1.9143e+05
     306.250	  1.9371e+05
     306.500	  1.9638e+05
     306.750	  1.9833e+05
     307.000	  1.9953e+05
     307.250	  2.0010e+05
     307.500	  1.9935e+05
     307.750	  1.9835e+05
     308.000	  1.9899e+05
     308.250	  2.0111e+05
     308.500	  2.0342e+05
     308.750	  2.0515e+05
     309.000	  2.0677e+05
     309.250	  2.0874e+05
     309.500	  2.1013e+05
     309.750	  2.1074e+05
     310.000	  2.1171e+05
     310.250	  2.1309e+05
     310.500	  2.1422e+05
     310.750	  2.1562e+05
     311.000	  2.1754e+05
     311.250	  2.1911e+05
     311.500	  2.2033e+05
     311.750	  2.2196e+05
     312.000	  2.2419e+05
     312.250	  2.2708e+05
     312.500	  2.2996e+05
     312.750	  2.3177e+05
     313.000	  2.3311e+05
     313.250	  2.3485e+05
     313.500	  2.3706e+05
     313.750	  2.3929e+05
     314.000	  2.4072e+05
     314.250	  2.4176e+05
     314.500	  2.4336e+05
     314.750	  2.4543e+05
     315.000	  2.4870e+05
     315.250	  2.5367e+05
     315.500	  2.5872e+05
     315.750	  2.6254e+05
     316.000	  2.6529e+05
     316.250	  2.6742e+05
     316.500	  2.6950e+05
     316.750	  2.7234e+05
     317.000	  2.7630e+05
     317.250	  2.8094e+05
     317.500	  2.8541e+05
     317.750	  2.8913e+05
     318.000	  2.9279e+05
     318.250	  2.9811e+05
     318.500	  3.0462e+05
     318.750	  3.1013e+05
     319.000	  3.1514e+05
     319.250	  3.2119e+05
     319.500	  3.2703e+05
     319.750	  3.3190e+05
     320.000	  3.3796e+05
     320.250	  3.4589e+05
     320.500	  3.5360e+05
     320.750	  3.6025e+05
     321.000	  3.6718e+05
     321.250	  3.7548e+05
     321.500	  3.8505e+05
     321.750	  3.9523e+05
     322.000	  4.0541e+05
     322.250	  4.1593e+05
     322.500	  4.2737e+05
     322.750	  4.3931e+05
     323.000	  4.5148e+05
     323.250	  4.6443e+05
     323.500	  4.7842e+05
     323.750	  4.9330e+05
     324.000	  5.0922e+05
     324.250	  5.2580e+05
     324.500	  5.4293e+05
     324.750	  5.6205e+05
     325.000	  5.8306e+05
     325.250	  6.0369e+05
     325.500	  6.2391e+05
     325.750	  6.4597e+05
     326.000	  6.7099e+05
     326.250	  6.9844e+05
     326.500	  7.2715e+05
     326.750	  7.5696e+05
     327.000	  7.8919e+05
     327.250	  8.2394e+05
     327.500	  8.5978e+05
     327.750	  8.9641e+05
     328.000	  9.3498e+05
     328.250	  9.7669e+05
     328.500	  1.0221e+06
     328.750	  1.0701e+06
     329.000	  1.1196e+06
     329.250	  1.1724e+06
     329.500	  1.2300e+06
     329.750	  1.2903e+06
     330.000	  1.3521e+06
     330.250	  1.4169e+06
     330.500	  1.4861e+06
     330.750	  1.5587e+06
     331.000	  1.6332e+06
     331.250	  1.7089e+06
     331.500	  1.7847e+06
     331.750	  1.8591e+06
     332.000	  1.9312e+06
     332.250	  1.9978e+06
     332.500	  2.0536e+06
     332.750	  2.0884e+06
     333.000	  2.0837e+06
     333.250	  2.0109e+06
     333.500	  1.8325e+06
     333.750	  1.5056e+06
     334.000	  1.0130e+06
     334.250	  4.1274e+05
     334.500	 -1.7151e+05
     334.750	 -6.3689e+05
     335.000	 -9.5773e+05
     335.250	 -1.1609e+06
     335.500	 -1.2839e+06
     335.750	 -1.3563e+06
     336.000	 -1.3969e+06
     336.250	 -1.4161e+06
     336.500	 -1.4205e+06
     336.750	 -1.4144e+06
     337.000	 -1.4004e+06
     337.250	 -1.3805e+06
     337.500	 -1.3559e+06
     337.750	 -1.3283e+06
     338.000	 -1.2995e+06
     338.250	 -1.2706e+06
     338.500	 -1.2415e+06
     338.750	 -1.2123e+06
     339.000	 -1.1835e+06
     339.250	 -1.1541e+06
     339.500	 -1.1238e+06
     339.750	 -1.0938e+06
     340.000	 -1.0650e+06
     340.250	 -1.0369e+06
     340.500	 -1.0096e+06
     340.750	 -9.8368e+05
     341.000	 -9.5823e+05
     341.250	 -9.3281e+05
     341.500	 -9.0897e+05
     341.750	 -8.8712e+05
     342.000	 -8.6625e+05
     342.250	 -8.4661e+05
     342.500	 -8.2774e+05
     342.750	 -8.0840e+05
     343.000	 -7.8988e+05
     343.250	 -7.7336e+05
     343.500	 -7.5702e+05
     343.750	 -7.3940e+05
     344.000	 -7.2165e+05
     344.250	 -7.0536e+05
     344.500	 -6.9091e+05
     344.750	 -6.7772e+05
     345.000	 -6.6498e+05
     345.250	 -6.5255e+05
     345.500	 -6.4018e+05
     345.750	 -6.2726e+05
     346.000	 -6.1479e+05
     346.250	 -6.0386e+05
     346.500	 -5.9302e+05
     346.750	 -5.8148e+05
     347.000	 -5.7114e+05
     347.250	 -5.6251e+05
     347.500	 -5.5376e+05
     347.750	 -5.4448e+05
     348.000	 -5.3581e+05
     348.250	 -5.2792e+05
     348.500	 -5.2039e+05
     348.750	 -5.1304e+05
     349.000	 -5.0539e+05
     349.250	 -4.9700e+05
     349.500	 -4.8846e+05
     349.750	 -4.8050e+05
     350.000	 -4.7284e+05
     350.250	 -4.6520e+05
     350.500	 -4.5843e+05
     350.750	 -4.5306e+05
     351.000	 -4.4816e+05
     351.250	 -4.4271e+05
     351.500	 -4.3687e+05
     351.750	 -4.3130e+05
     352.000	 -4.2601e+05
     352.250	 -4.2054e+05
     352.500	 -4.1477e+05
     352.750	 -4.0909e+05
     353.000	 -4.0349e+05
     353.250	 -3.9789e+05
     353.500	 -3.9308e+05
     353.750	 -3.8944e+05
     354.000	 -3.8626e+05
     354.250	 -3.8296e+05
     354.500	 -3.7927e+05
     354.750	 -3.7452e+05
     355.000	 -3.6944e+05
     355.250	 -3.6567e+05
     355.500	 -3.6259e+05
     355.750	 -3.5865e+05
     356.000	 -3.5457e+05
     356.250	 -3.5176e+05
     356.500	 -3.4925e+05
     356.750	 -3.4521e+05
     357.000	 -3.4033e+05
     357.250	 -3.3653e+05
     357.500	 -3.3387e+05
     357.750	 -3.3095e+05
     358.000	 -3.2739e+05
     358.250	 -3.2389e+05
     358.500	 -3.2069e+05
     358.750	 -3.1748e+05
     359.000	 -3.1364e+05
     359.250	 -3.0927e+05
     359.500	 -3.0555e+05
     359.750	 -3.0316e+05
     360.000	 -3.0118e+05
     360.250	 -2.9876e+05
     360.500	 -2.9658e+05
     360.750	 -2.9409e+05
     361.000	 -2.9012e+05
     361.250	 -2.8684e+05
     361.500	 -2.8571e+05
     361.750	 -2.8405e+05
     362.000	 -2.8030e+05
     362.250	 -2.7630e+05
     362.500	 -2.7379e+05
     362.750	 -2.7205e+05
     363.000	 -2.6959e+05
     363.250	 -2.6697e+05
     363.500	 -2.6534e+05
     363.750	 -2.6418e+05
     364.000	 -2.6235e+05
     364.250	 -2.5922e+05
     364.500	 -2.5513e+05
     364.750	 -2.5134e+05
     365.000	 -2.4848e+05
     365.250	 -2.4585e+05
     365.500	 -2.4332e+05
     365.750	 -2.4166e+05
     366.000	 -2.4080e+05
     366.250	 -2.3986e+05
     366.500	 -2.3793e+05
     366.750	 -2.3485e+05
     367.000	 -2.3167e+05
     367.250	 -2.2981e+05
     367.500	 -2.2925e+05
     367.750	 -2.2856e+05
     368.000	 -2.2680e+05
     368.250	 -2.2427e+05
     368.500	 -2.2139e+05
     368.750	 -2.1841e+05
     369.000	 -2.1560e+05
     369.250	 -2.1350e+05
     369.500	 -2.1244e+05
     369.750	 -2.1141e+05
     370.000	 -2.0952e+05
     370.250	 -2.0756e+05
     370.500	 -2.0621e+05
     370.750	 -2.0492e+05
     371.000	 -2.0297e+05
     371.250	 -2.0046e+05
     371.500	 -1.9809e+05
     371.750	 -1.9646e+05
     372.000	 -1.9534e+05
     372.250	 -1.9352e+05
     372.500	 -1.9060e+05
     372.750	 -1.8792e+05
     373.000	 -1.8647e+05
     373.250	 -1.8559e+05
     373.500	 -1.8474e+05
     373.750	 -1.8400e+05
     374.000	 -1.8246e+05
     374.250	 -1.7947e+05
     374.500	 -1.7615e+05
     374.750	 -1.7348e+05
     375.000	 -1.7143e+05
     375.250	 -1.7038e+05
     375.500	 -1.7034e+05
     375.750	 -1.6954e+05
     376.000	 -1.6701e+05
     376.250	 -1.6438e+05
     376.500	 -1.6300e+05
     376.750	 -1.6224e+05
     377.000	 -1.6093e+05
     377.250	 -1.5902e+05
     377.500	 -1.5716e+05
     377.750	 -1.5551e+05
     378.000	 -1.5392e+05
     378.250	 -1.5212e+05
     378.500	 -1.4994e+05
     378.750	 -1.4810e+05
     379.000	 -1.4732e+05
     379.250	 -1.4661e+05
     379.500	 -1.4484e+05
     379.750	 -1.4266e+05
     380.000	 -1.4114e+05
     380.250	 -1.4038e+05
     380.500	 -1.3963e+05
     380.750	 -1.3819e+05
     381.000	 -1.3645e+05
     381.250	 -1.3560e+05
     381.500	 -1.3568e+05
     381.750	 -1.3517e+05
     382.000	 -1.3328e+05
     382.250	 -1.3062e+05
     382.500	 -1.2825e+05
     382.750	 -1.2671e+05
     383.000	 -1.2571e+05
     383.250	 -1.2477e+05
     383.500	 -1.2364e+05
     383.750	 -1.2211e+05
     384.000	 -1.2016e+05
     384.250	 -1.1820e+05
     384.500	 -1.1626e+05
     384.750	 -1.1403e+05
     385.000	 -1.1259e+05
     385.250	 -1.1237e+05
     385.500	 -1.1183e+05
     385.750	 -1.1081e+05
     386.000	 -1.1023e+05
     386.250	 -1.0948e+05
     386.500	 -1.0847e+05
     386.750	 -1.0815e+05
     387.000	 -1.0808e+05
     387.250	 -1.0697e+05
     387.500	 -1.0491e+05
     387.750	 -1.0279e+05
     388.000	 -1.0070e+05
     388.250	 -9.8909e+04
     388.500	 -9.8430e+04
     388.750	 -9.9018e+04
     389.000	 -9.8985e+04
     389.250	 -9.7469e+04
     389.500	 -9.5727e+04
     389.750	 -9.5166e+04
     390.000	 -9.4869e+04
     390.250	 -9.3887e+04
     390.500	 -9.3139e+04
     390.750	 -9.2252e+04
     391.000	 -9.0353e+04
     391.250	 -8.9071e+04
     391.500	 -8.8846e+04
     391.750	 -8.7497e+04
     392.000	 -8.4899e+04
     392.250	 -8.3228e+04
     392.500	 -8.2972e+04
     392.750	 -8.2498e+04
     393.000	 -8.1200e+04
     393.250	 -8.0453e+04
     393.500	 -8.1042e+04
     393.750	 -8.2035e+04
     394.000	 -8.2200e+04
     394.250	 -8.0922e+04
     394.500	 -7.8642e+04
     394.750	 -7.7006e+04
     395.000	 -7.7112e+04
     395.250	 -7.7771e+04
     395.500	 -7.7030e+04
     395.750	 -7.4980e+04
     396.000	 -7.3510e+04
     396.250	 -7.3082e+04
     396.500	 -7.2489e+04
     396.750	 -7.1803e+04
     397.000	 -7.1747e+04
     397.250	 -7.1762e+04
     397.500	 -7.1428e+04
     397.750	 -7.1252e+04
     398.000	 -7.1139e+04
     398.250	 -7.0618e+04
     398.500	 -6.9935e+04
     398.750	 -6.9424e+04
     399.000	 -6.8858e+04
     399.250	 -6.8005e+04
     399.500	 -6.7174e+04
     399.750	 -6.6348e+04
     400.000	 -6.5271e+04
     400.250	 -6.4523e+04
     400.500	 -6.4094e+04
     400.750	 -6.2940e+04
     401.000	 -6.1291e+04
     401.250	 -6.0552e+04
     401.500	 -6.1072e+04
     401.750	 -6.2120e+04
     402.000	 -6.2624e+04
     402.250	 -6.1690e+04
     402.500	 -6.0012e+04
     402.750	 -5.9225e+04
     403.000	 -5.9328e+04
     403.250	 -5.9031e+04
     403.500	 -5.8203e+04
     403.750	 -5.7505e+04
     404.000	 -5.6885e+04
     404.250	 -5.6225e+04
     404.500	 -5.6012e+04
     404.750	 -5.6236e+04
     405.000	 -5.5862e+04
     405.250	 -5.4410e+04
     405.500	 -5.2915e+04
     405.750	 -5.2544e+04
     406.000	 -5.2683e+04
     406.250	 -5.2181e+04
     406.500	 -5.1585e+04
     406.750	 -5.1754e+04
     407.000	 -5.2298e+04
     407.250	 -5.2142e+04
     407.500	 -5.0783e+04
     407.750	 -4.9185e+04
     408.000	 -4.8399e+04
     408.250	 -4.7927e+04
     408.500	 -4.7286e+04
     408.750	 -4.7371e+04
     409.000	 -4.8267e+04
     409.250	 -4.8677e+04
     409.500	 -4.8255e+04
     409.750	 -4.7500e+04
     410.000	 -4.6358e+04
     410.250	 -4.5217e+04
     410.500	 -4.5013e+04
     410.750	 -4.5130e+04
     411.000	 -4.4392e+04
     411.250	 -4.3523e+04
     411.500	 -4.3723e+04
     411.750	 -4.4324e+04
     412.000	 -4.4023e+04
     412.250	 -4.2806e+04
     412.500	 -4.1781e+04
     412.750	 -4.2015e+04
     413.000	 -4.2791e+04
     413.250	 -4.3037e+04
     413.500	 -4.3317e+04
     413.750	 -4.3285e+04
     414.000	 -4.2184e+04
     414.250	 -4.1168e+04
     414.500	 -4.0971e+04
     414.750	 -4.1048e+04
     415.000	 -4.0897e+04
     415.250	 -4.0670e+04
     415.500	 -4.1033e+04
     415.750	 -4.1166e+04
     416.000	 -3.9853e+04
     416.250	 -3.7957e+04
     416.500	 -3.6457e+04
     416.750	 -3.5858e+04
     417.000	 -3.6811e+04
     417.250	 -3.8246e+04
     417.500	 -3.8297e+04
     417.750	 -3.7283e+04
     418.000	 -3.6788e+04
     418.250	 -3.6795e+04
     418.500	 -3.6147e+04
     418.750	 -3.4581e+04
     419.000	 -3.3242e+04
     419.250	 -3.3321e+04
     419.500	 -3.3805e+04
     419.750	 -3.3119e+04
     420.000	 -3.2265e+04
     420.250	 -3.2522e+04
     420.500	 -3.3177e+04
     420.750	 -3.3867e+04
     421.000	 -3.4506e+04
     421.250	 -3.4006e+04
     421.500	 -3.2268e+04
     421.750	 -3.0613e+04
     422.000	 -2.9983e+04
     422.250	 -2.9831e+04
     422.500	 -2.9330e+04
     422.750	 -2.9067e+04
     423.000	 -2.9478e+04
     423.250	 -2.9670e+04
     423.500	 -2.9106e+04
     423.750	 -2.8574e+04
     424.000	 -2.9080e+04
     424.250	 -3.0447e+04
     424.500	 -3.1412e+04
     424.750	 -3.1125e+04
     425.000	 -2.9796e+04
     425.250	 -2.8014e+04
     425.500	 -2.6772e+04
     425.750	 -2.6773e+04
     426.000	 -2.7363e+04
     426.250	 -2.7483e+04
     426.500	 -2.7060e+04
     426.750	 -2.6761e+04
     427.000	 -2.6336e+04
     427.250	 -2.5293e+04
     427.500	 -2.4486e+04
     427.750	 -2.4337e+04
     428.000	 -2.4494e+04
     428.250	 -2.4918e+04
     428.500	 -2.4687e+04
     428.750	 -2.3404e+04
     429.000	 -2.2757e+04
     429.250	 -2.3317e+04
     429.500	 -2.3836e+04
     429.750	 -2.3928e+04
     430.000	 -2.3497e+04
     430.250	 -2.2364e+04
     430.500	 -2.1622e+04
     430.750	 -2.1606e+04
     431.000	 -2.1128e+04
     431.250	 -2.0183e+04
     431.500	 -1.9789e+04
     431.750	 -2.0139e+04
     432.000	 -2.0986e+04
     432.250	 -2.1939e+04
     432.500	 -2.2096e+04
     432.750	 -2.1438e+04
     433.000	 -2.0867e+04
     433.250	 -2.0391e+04
     433.500	 -1.9533e+04
     433.750	 -1.8698e+04
     434.000	 -1.8789e+04
     434.250	 -1.9676e+04
     434.500	 -2.0198e+04
     434.750	 -2.0043e+04
     435.000	 -2.0262e+04
     435.250	 -2.0961e+04
     435.500	 -2.0909e+04
     435.750	 -1.9858e+04
     436.000	 -1.8429e+04
     436.250	 -1.7545e+04
     436.500	 -1.8179e+04
     436.750	 -1.9388e+04
     437.000	 -1.9439e+04
     437.250	 -1.8596e+04
     437.500	 -1.7901e+04
     437.750	 -1.7336e+04
     438.000	 -1.6251e+04
     438.250	 -1.4651e+04
     438.500	 -1.3578e+04
     438.750	 -1.3864e+04
     439.000	 -1.5051e+04
     439.250	 -1.5553e+04
     439.500	 -1.4865e+04
     439.750	 -1.4499e+04
     440.000	 -1.4447e+04
     440.250	 -1.3503e+04
     440.500	 -1.2934e+04
     440.750	 -1.4128e+04
     441.000	 -1.5748e+04
     441.250	 -1.6011e+04
     441.500	 -1.5301e+04
     441.750	 -1.4904e+04
     442.000	 -1.4656e+04
     442.250	 -1.3962e+04
     442.500	 -1.3330e+04
     442.750	 -1.3785e+04
     443.000	 -1.5425e+04
     443.250	 -1.6670e+04
     443.500	 -1.5489e+04
     443.750	 -1.2284e+04
     444.000	 -1.0143e+04
     444.250	 -1.0620e+04
     444.500	 -1.2403e+04
     444.750	 -1.3944e+04
     445.000	 -1.4537e+04
     445.250	 -1.4329e+04
     445.500	 -1.3556e+04
     445.750	 -1.2011e+04
     446.000	 -1.0366e+04
     446.250	 -9.7292e+03
     446.500	 -1.0200e+04
     446.750	 -1.1317e+04
     447.000	 -1.1884e+04
     447.250	 -1.0926e+04
     447.500	 -9.6241e+03
     447.750	 -9.1478e+03
     448.000	 -8.9016e+03
     448.250	 -8.7445e+03
     448.500	 -9.2346e+03
     448.750	 -1.0081e+04
     449.000	 -1.1019e+04
     449.250	 -1.1993e+04
     449.500	 -1.1930e+04
     449.750	 -1.0507e+04
     450.000	 -8.9837e+03
     450.250	 -7.9038e+03
     450.500	 -7.6009e+03
     450.750	 -8.7275e+03
     451.000	 -1.0438e+04
     451.250	 -1.1085e+04
     451.500	 -1.0341e+04
     451.750	 -8.9455e+03
     452.000	 -7.6202e+03
     452.250	 -7.1040e+03
     452.500	 -7.5697e+03
     452.750	 -8.2220e+03
     453.000	 -8.2650e+03
     453.250	 -7.5562e+03
     453.500	 -6.9144e+03
     453.750	 -7.3931e+03
     454.000	 -8.9506e+03
     454.250	 -1.0721e+04
     454.500	 -1.1592e+04
     454.750	 -1.0620e+04
     455.000	 -8.6180e+03
     455.250	 -7.2500e+03
     455.500	 -6.3331e+03
     455.750	 -5.6584e+03
     456.000	 -5.7329e+03
     456.250	 -5.7503e+03
     456.500	 -5.4029e+03
     456.750	 -5.0892e+03
     457.000	 -4.4578e+03
     457.250	 -4.2777e+03
     457.500	 -5.5322e+03
     457.750	 -6.5755e+03
     458.000	 -5.7312e+03
     458.250	 -4.2702e+03
     458.500	 -3.9688e+03
     458.750	 -4.4174e+03
     459.000	 -4.1185e+03
     459.250	 -2.8470e+03
     459.500	 -1.9929e+03
     459.750	 -2.7105e+03
     460.000	 -4.2005e+03
     460.250	 -4.9445e+03
     460.500	 -5.0862e+03
     460.750	 -5.7149e+03
     461.000	 -6.6217e+03
     461.250	 -6.2357e+03
     461.500	 -4.0166e+03
     461.750	 -1.7811e+03
     462.000	 -1.5556e+03
     462.250	 -2.9704e+03
     462.500	 -4.0187e+03
     462.750	 -3.9941e+03
     463.000	 -3.6558e+03
     463.250	 -3.4852e+03
     463.500	 -3.6617e+03
     463.750	 -3.7849e+03
     464.000	 -3.2946e+03
     464.250	 -3.3910e+03
     464.500	 -4.8873e+03
     464.750	 -5.6522e+03
     465.000	 -4.2929e+03
     465.250	 -2.5325e+03
     465.500	 -2.0420e+03
     465.750	 -2.5852e+03
     466.000	 -3.2902e+03
     466.250	 -3.6877e+03
     466.500	 -3.7945e+03
     466.750	 -4.0461e+03
     467.000	 -4.7310e+03
     467.250	 -5.2062e+03
     467.500	 -4.3490e+03
     467.750	 -2.3751e+03
     468.000	 -1.3263e+03
     468.250	 -2.1185e+03
     468.500	 -3.1535e+03
     468.750	 -3.1695e+03
     469.000	 -2.3842e+03
     469.250	 -1.4545e+03
     469.500	 -1.1789e+03
     469.750	 -1.7214e+03
     470.000	 -2.2009e+03
     470.250	 -2.2254e+03
     470.500	 -2.5700e+03
     470.750	 -3.2042e+03
     471.000	 -2.7060e+03
     471.250	 -7.7192e+02
     471.500	  9.8971e+02
     471.750	  1.3571e+03
     472.000	  6.5652e+02
     472.250	 -9.1107e+01
     472.500	 -6.2786e+02
     472.750	 -1.6969e+03
     473.000	 -2.8412e+03
     473.250	 -2.6584e+03
     473.500	 -1.5312e+03
     473.750	 -6.1054e+02
     474.000	  1.3702e+02
     474.250	  5.4908e+02
     474.500	  9.7680e+00
     474.750	 -5.1342e+02
     475.000	 -9.8732e+01
     475.250	 -1.5445e+00
     475.500	 -7.1379e+02
     475.750	 -8.9336e+02
     476.000	 -2.2548e+02
     476.250	  5.7189e+02
     476.500	  1.1083e+03
     476.750	  8.5977e+02
     477.000	  2.7958e+02
     477.250	  6.8752e+02
     477.500	  1.3944e+03
     477.750	  1.2289e+03
     478.000	  3.5089e+02
     478.250	 -1.0457e+03
     478.500	 -1.6900e+03
     478.750	 -3.9942e+02
     479.000	  1.4938e+03
     479.250	  2.5580e+03
     479.500	  2.8986e+03
     479.750	  2.8902e+03
     480.000	  2.3750e+03
     480.250	  1.1778e+03
     480.500	  1.2958e+02
     480.750	  2.6814e+02
     481.000	  1.4265e+03
     481.250	  2.5731e+03
     481.500	  2.7220e+03
     481.750	  1.6726e+03
     482.000	  4.9577e+02
     482.250	  6.4383e+02
     482.500	  2.1243e+03
     482.750	  3.3098e+03
     483.000	  3.2562e+03
     483.250	  2.6362e+03
     483.500	  2.0817e+03
     483.750	  1.9244e+03
     484.000	  2.5923e+03
     484.250	  3.6235e+03
     484.500	  4.0420e+03
     484.750	  3.6516e+03
     485.000	  2.4321e+03
     485.250	  4.9446e+02
     485.500	 -8.0679e+02
     485.750	 -4.0511e+02
     486.000	  5.1389e+02
     486.250	  6.6527e+02
     486.500	  6.6564e+02
     486.750	  1.1435e+03
     487.000	  1.7493e+03
     487.250	  2.2175e+03
     487.500	  2.4658e+03
     487.750	  2.3572e+03
     488.000	  1.9883e+03
     488.250	  1.8204e+03
     488.500	  1.9598e+03
     488.750	  1.9114e+03
     489.000	  2.4060e+03
     489.250	  4.7222e+03
     489.500	  6.9244e+03
     489.750	  6.1214e+03
     490.000	  3.7209e+03
     490.250	  2.6106e+03
     490.500	  2.6586e+03
     490.750	  2.9701e+03
     491.000	  3.3913e+03
     491.250	  3.3680e+03
     491.500	  3.2631e+03
     491.750	  3.4616e+03
     492.000	  3.0416e+03
     492.250	  2.5108e+03
     492.500	  3.0371e+03
     492.750	  3.9963e+03
     493.000	  4.4387e+03
     493.250	  4.1372e+03
     493.500	  3.5203e+03
     493.750	  2.9571e+03
     494.000	  2.1636e+03
     494.250	  1.8205e+03
     494.500	  2.7448e+03
     494.750	  3.6636e+03
     495.000	  3.3788e+03
     495.250	  2.6101e+03
     495.500	  2.5109e+03
     495.750	  3.3390e+03
     496.000	  4.5473e+03
     496.250	  5.2585e+03
     496.500	  5.3797e+03
     496.750	  5.9823e+03
     497.000	  6.8349e+03
     497.250	  6.7855e+03
     497.500	  6.2345e+03
     497.750	  5.7471e+03
     498.000	  5.2620e+03
     498.250	  5.3906e+03
     498.500	  6.3930e+03
     498.750	  6.7201e+03
     499.000	  5.5266e+03
     499.250	  4.1914e+03
     499.500	  3.4893e+03
     499.750	  2.9665e+03
